Temperature (°C),Resistance (kΩ)
-40,1802
-39,1681.82
-38,1570.43
-37,1467.14
-36,1371.32
-35,1282.37
-34,1199.77
-33,1123.01
-32,1051.66
-31,985.29
-30,923.54
-29,866.05
-28,812.51
-27,762.61
-26,716.09
-25,672.7
-24,632.22
-23,594.42
-22,559.12
-21,526.13
-20,495.3
-19,466.5
-18,439.56
-17,414.33
-16,390.7
-15,368.56
-14,347.81
-13,328.35
-12,310.09
-11,292.96
-10,276.87
-9,261.77
-8,247.57
-7,234.23
-6,221.69
-5,209.89
-4,198.79
-3,188.34
-2,178.5
-1,169.23
0,160.5
1,152.23
2,144.44
3,137.09
4,130.16
5,123.62
6,117.45
7,111.62
8,106.11
9,100.91
10,95.99
11,91.34
12,86.94
13,82.78
14,78.84
15,75.11
16,71.58
17,68.23
18,65.06
19,62.06
20,59.21
21,56.5
22,53.94
23,51.5
24,49.19
25,47
26,44.92
27,42.95
28,41.07
29,39.29
30,37.6
